#F lc4O8_d0025_a
#E 1095882141
#D Wed Sep 22 15:42:21 2004
#C 4O8  User = clegg
#O0 Two Theta     Theta       Chi       Phi  Attenuation  Detector  Tab Vert   Tab Hor
#O1   Ion #2    Hor #4   Vert #4   T.V. #3    Ion #1  Mono Down  Mono Trav   Mono Up
#O2  T.V. #2    Hor #3   Vert #3   Mirdhor  Mirdvert   Miruhor  Miruvert    T.V.#1
#O3   Bot #2    Top #2    Hor #1   Vert #1  S5 Bottom    S5 Top   S5 Left  S5 Right
#O4 Analyzer     Zscan  

#S 1  ascan  tabv -1.33621 2.66379  20 1
#D Wed Sep 22 15:44:13 2004
#T 1  (Seconds)
#G0 0 0 0 0 0 1 0 0 0 0 0 0
#G1 6.28318 6.28318 6.28318 90 90 90 1 1 1 90 90 90 2 0 0 2 1 0 24 12 0 0 0 0 24 3.23 100 0 0 0 1.23984 1.45863
#G2 0
#Q 0 0 0
#P0 0 0 0 0 5 -23 0.66378947 0.12095238
#P1 7.997206 -29.999365 23.799848 0 60.999492 10.94175 252.94576 10.94175
#P2 -67.000254 -18.001016 37.5 3.479807 2.6301753 2.8956058 -0.81978664 -43.999873
#P3 2.000254 6.7995936 11.000127 35.819787 0.5 0.5 0.5 0.5
#P4 -11.1895 18.93736 
#N 10
#L Tab Vert  H  K  L  Epoch  Seconds  Ion 3  Temperature  Detector  Monitor
-1.3362105 0 0 0 136 1 102061 80.004 248 452
-1.1362105 0 0 0 139 1 102075 80.001 364 484
-0.93621053 0 0 0 143 1 102068 80.005 519 540
-0.73621053 0 0 0 146 1 102059 80.001 750 656
-0.53621053 0 0 0 149 1 102037 80.003 1032 791
-0.33621053 0 0 0 152 1 102009 80.003 1541 889
-0.13621053 0 0 0 156 1 101975 80.004 2530 1241
0.063789474 0 0 0 159 1 101932 80.001 5145 1978
0.26378947 0 0 0 162 1 101880 80.002 18021 4537
0.46378947 0 0 0 166 1 101828 80.001 49760 9545
0.66378947 0 0 0 169 1 101774 80.003 74414 14852
0.86378947 0 0 0 172 1 101697 80 79826 17129
1.0637895 0 0 0 175 1 101620 80.001 69052 17658
1.2637895 0 0 0 179 1 101551 80.001 33863 15549
1.4637895 0 0 0 182 1 101484 80.003 8343 10487
1.6637895 0 0 0 185 1 101402 80.001 2819 5218
1.8637895 0 0 0 188 1 101313 80.003 1607 2682
2.0637895 0 0 0 192 1 101222 80.003 995 1787
2.2637895 0 0 0 195 1 101121 80.002 534 1280
2.4637895 0 0 0 198 1 101020 80 239 948
2.6637895 0 0 0 202 1 100907 80.002 82 688

#S 2  qscan  -0.005 0.005 80 1
#D Wed Sep 22 15:46:47 2004
#T 1  (Seconds)
#G0 0 0 0 0 0 1 0 0 0 0 0 0
#G1 6.28318 6.28318 6.28318 90 90 90 1 1 1 90 90 90 2 0 0 2 1 0 24 12 0 0 0 0 24 3.23 100 0 0 0 1.23984 1.45863
#G2 0
#Q 0 0 0
#P0 0 0 0 0 5 -23 0.98094737 0.12095238
#P1 7.997206 -29.999365 23.799848 0 60.999492 10.94175 252.94576 10.94175
#P2 -67.000254 -18.001016 37.5 3.479807 2.6301753 2.8956058 -0.81978664 -43.999873
#P3 2.000254 6.7995936 11.000127 35.819787 0.5 0.5 0.5 0.5
#P4 -11.1895 18.93736 
#N 7
#L Q  Epoch  Seconds  Ion 3  Temperature  Monitor  Detector
-0.005 268 1 101380 80.007 17530 80
-0.004875 270 1 101383 80.005 17637 114
-0.00475 271 1 101381 80.006 17465 105
-0.004625 272 1 101373 80.006 17792 90
-0.0045 274 1 101381 80.006 17574 119
-0.004375 275 1 101372 80.004 17765 107
-0.00425 276 1 101372 80.005 17572 119
-0.004125 278 1 101365 80.006 17626 120
-0.004 279 1 101364 80.006 17689 149
-0.003875 280 1 101356 80.005 17319 135
-0.00375 282 1 101361 80.006 17556 147
-0.003625 283 1 101359 80.007 17868 151
-0.0035 284 1 101355 80.006 17313 194
-0.003375 285 1 101354 80.004 17532 193
-0.00325 287 1 101354 80.007 17527 203
-0.003125 288 1 101347 80.006 17780 204
-0.003 289 1 101348 80.005 17548 257
-0.002875 291 1 101351 80.007 17374 230
-0.00275 292 1 101341 80.007 17706 268
-0.002625 293 1 101342 80.006 17476 314
-0.0025 295 1 101338 80.005 17644 345
-0.002375 296 1 101333 80.006 17591 363
-0.00225 297 1 101330 80.007 17356 413
-0.002125 299 1 101327 80.006 17308 532
-0.002 300 1 101332 80.004 17824 568
-0.001875 301 1 101327 80.006 17801 657
-0.00175 303 1 101322 80.004 17677 780
-0.001625 304 1 101321 80.004 17314 973
-0.0015 305 1 101324 80.006 17797 1268
-0.001375 306 1 101325 80.004 17614 1805
-0.00125 308 1 101311 80.004 17740 2689
-0.001125 309 1 101315 80.005 17681 4606
-0.001 310 1 101310 80.006 17822 10249
-0.000875 312 1 101307 80.006 17854 23140
-0.00075 313 1 101299 80.003 17483 42319
-0.000625 314 1 101303 80.003 17356 60808
-0.0005 316 1 101301 80.003 17662 70935
-0.000375 317 1 101302 80.003 17538 75446
-0.00025 318 1 101299 80.005 17697 77946
-0.000125 320 1 101292 80.004 17621 77802
0 321 1 101287 80.004 17706 77017
0.000125 322 1 101288 80.006 17570 74849
0.00025 324 1 101281 80.003 17613 69034
0.000375 325 1 101283 80.004 17712 62637
0.0005 326 1 101279 80.006 17550 54884
0.000625 328 1 101274 80.005 17794 46875
0.00075 329 1 101274 80.006 17630 41268
0.000875 330 1 101277 80.006 17675 35828
0.001 331 1 101270 80.004 17695 31894
0.001125 333 1 101266 80.006 17541 26893
0.00125 334 1 101269 80.006 17722 23473
0.001375 335 1 101263 80.004 17354 19914
0.0015 337 1 101263 80.006 17540 16885
0.001625 338 1 101259 80.007 17894 14184
0.00175 339 1 101253 80.006 17671 11904
0.001875 341 1 101248 80.007 17541 9925
0.002 342 1 101251 80.004 17560 8434
0.002125 343 1 101225 80.004 17706 7200
0.00225 345 1 101245 80.006 17718 6366
0.002375 346 1 101243 80.007 17625 5393
0.0025 347 1 101240 80.004 17513 4519
0.002625 349 1 101244 80.004 17482 3774
0.00275 350 1 101238 80.007 17687 2867
0.002875 351 1 101235 80.006 17527 2103
0.003 352 1 101234 80.004 17719 1376
0.003125 354 1 101227 80.008 17594 734
0.00325 355 1 101223 80.006 17710 450
0.003375 356 1 101220 80.004 17568 292
0.0035 358 1 101222 80.006 17673 210
0.003625 359 1 101222 80.007 17658 169
0.00375 360 1 101218 80.006 17406 161
0.003875 362 1 101217 80.006 17481 112
0.004 363 1 101206 80.007 17620 106
0.004125 364 1 101212 80.005 17665 91
0.00425 366 1 101208 80.007 17507 88
0.004375 367 1 101204 80.005 17623 84
0.0045 368 1 101201 80.005 17508 77
0.004625 370 1 101201 80.006 17608 59
0.00475 371 1 101200 80.004 17356 61
0.004875 372 1 101205 80.008 17755 46
0.005 374 1 101200 80.004 17794 54

#S 3  qscan  0.05 0.3 50 -20000
#D Wed Sep 22 15:49:32 2004
#M 20000  (Monitor)
#G0 0 0 0 0 0 1 0 0 0 0 0 0
#G1 6.28318 6.28318 6.28318 90 90 90 1 1 1 90 90 90 2 0 0 2 1 0 24 12 0 0 0 0 24 3.23 100 0 0 0 1.23984 1.45863
#G2 0
#Q 0.00499733 0 0
#P0 0.0565 0.02825 0 0 0 -23 0.98094737 0.12095238
#P1 7.997206 -29.999365 23.799848 0 60.999492 10.94175 252.94576 10.94175
#P2 -67.000254 -18.001016 37.5 3.479807 2.6301753 2.8956058 -0.81978664 -43.999873
#P3 2.000254 6.7995936 11.000127 35.819787 0.5 0.5 0.5 0.5
#P4 -11.1895 18.93736 
#N 7
#L Q  Epoch  Monitor  Ion 3  Temperature  Seconds  Detector
0.05 433 20001 113927 80.008 1.126 9213
0.055 435 20003 114220 80.003 1.129 6702
0.06 437 20004 111451 80.003 1.102 4590
0.065 439 20001 113793 80.003 1.125 3624
0.07 440 20001 113244 80.006 1.12 2713
0.075 442 20003 112881 80.004 1.116 2131
0.08 444 20001 114324 80.004 1.13 1652
0.085 446 20001 112149 80.003 1.109 1359
0.09 447 20001 114941 80.004 1.137 1115
0.095 449 20001 114243 80.001 1.13 904
0.1 451 20001 112971 80.004 1.117 804
0.105 453 20003 113080 80.007 1.118 679
0.11 454 20004 115032 80.003 1.137 585
0.115 456 20001 114370 80.004 1.131 456
0.12 458 20001 113302 80.006 1.12 457
0.125 460 20005 114221 80.004 1.13 418
0.13 461 20002 113227 80.004 1.12 339
0.135 463 20002 113536 80.004 1.123 314
0.14 465 20005 114670 80.005 1.134 303
0.145 467 20001 114086 80.004 1.128 256
0.15 469 20003 112948 80.004 1.117 225
0.155 470 20001 112764 80.004 1.115 220
0.16 472 20001 114041 80.008 1.128 207
0.165 474 20001 112299 80.006 1.111 216
0.17 476 20002 113895 80.006 1.126 200
0.175 477 20001 113038 80.007 1.118 200
0.18 479 20003 111246 80.006 1.1 167
0.185 481 20002 114197 80.004 1.129 190
0.19 483 20003 113093 80.006 1.119 220
0.195 484 20002 114834 80.006 1.136 195
0.2 486 20001 114030 80.005 1.128 183
0.205 488 20002 113279 80.005 1.12 157
0.21 490 20003 113342 80.007 1.121 170
0.215 491 20003 114487 80.005 1.132 161
0.22 493 20001 112933 80.006 1.117 170
0.225 495 20005 114497 80.006 1.132 178
0.23 497 20002 113610 80.006 1.124 175
0.235 498 20002 113491 80.005 1.123 175
0.24 500 20002 112666 80.006 1.114 180
0.245 502 20002 113458 80.004 1.122 155
0.25 504 20002 112627 80.004 1.114 173
0.255 505 20002 114584 80.004 1.134 155
0.26 507 20001 113591 80.007 1.124 184
0.265 509 20002 114479 80.007 1.132 160
0.27 511 20003 112665 80.005 1.114 159
0.275 512 20002 112973 80.006 1.118 178
0.28 514 20002 114154 80.007 1.129 164
0.285 516 20004 113549 80.006 1.123 153
0.29 518 20001 113214 80.005 1.12 173
0.295 519 20003 113630 80.006 1.124 168
0.3 521 20004 114327 80.006 1.131 177
#C Wed Sep 22 16:13:00 2004.  do /u/clegg/macros/batch.mac.

#S 4  ascan  tabv -1.01905 2.98095  20 1
#D Wed Sep 22 16:13:00 2004
#T 1  (Seconds)
#G0 0 0 0 0 0 1 0 0 0 0 0 0
#G1 6.28318 6.28318 6.28318 90 90 90 1 1 1 90 90 90 2 0 0 2 1 0 24 12 0 0 0 0 24 3.23 100 0 0 0 1.23984 1.45863
#G2 0
#Q 0.299995 0 0
#P0 3.39225 1.696125 0 0 5.5 -23 0.98094737 0.12095238
#P1 7.997206 -29.999365 23.799848 0 60.999492 10.94175 252.94576 10.94175
#P2 -67.000254 -18.001016 37.5 3.479807 2.6301753 2.8956058 -0.81978664 -43.999873
#P3 2.000254 6.7995936 11.000127 35.819787 0.5 0.5 0.5 0.5
#P4 -11.1895 18.93736 
#N 10
#L Tab Vert  H  K  L  Epoch  Seconds  Ion 3  Temperature  Detector  Monitor
-1.0190526 0.299995 0 0 1863 1 100296 80.006 0 537
-0.81905263 0.299995 0 0 1866 1 100291 70.001 0 637
-0.61905263 0.299995 0 0 1869 1 100281 70.002 0 686
-0.41905263 0.299995 0 0 1872 1 100236 70 0 796
-0.21905263 0.299995 0 0 1876 1 100226 70.004 0 1038
-0.019052632 0.299995 0 0 1879 1 100193 70.002 0 1502
0.18094737 0.299995 0 0 1882 1 100151 70.001 0 2822
0.38094737 0.299995 0 0 1886 1 100109 70.003 0 6888
0.58094737 0.299995 0 0 1889 1 100042 70.005 0 12460
0.78094737 0.299995 0 0 1892 1 99987 70.003 0 16333
0.98094737 0.299995 0 0 1895 1 99924 70.002 0 17638
1.1809474 0.299995 0 0 1899 1 99865 70.004 0 16590
1.3809474 0.299995 0 0 1902 1 99807 70.005 0 13112
1.5809474 0.299995 0 0 1905 1 99732 70.002 0 7486
1.7809474 0.299995 0 0 1908 1 99649 70.003 0 3484
1.9809474 0.299995 0 0 1912 1 99565 70.004 0 2060
2.1809474 0.299995 0 0 1915 1 99474 70.004 0 1411
2.3809474 0.299995 0 0 1918 1 99383 70.003 0 1054
2.5809474 0.299995 0 0 1922 1 99279 70.004 0 726
2.7809474 0.299995 0 0 1925 1 99185 70.005 0 517
2.9809474 0.299995 0 0 1928 1 99252 70.002 0 409

#S 5  qscan  -0.005 0.005 80 -20000
#D Wed Sep 22 16:14:56 2004
#M 20000  (Monitor)
#G0 0 0 0 0 0 1 0 0 0 0 0 0
#G1 6.28318 6.28318 6.28318 90 90 90 1 1 1 90 90 90 2 0 0 2 1 0 24 12 0 0 0 0 24 3.23 100 0 0 0 1.23984 1.45863
#G2 0
#Q 0.299995 0 0
#P0 3.39225 1.696125 0 0 5 -23 0.99189474 0.12095238
#P1 7.997206 -29.999365 23.799848 0 60.999492 10.94175 252.94576 10.94175
#P2 -67.000254 -18.001016 37.5 3.479807 2.6301753 2.8956058 -0.81978664 -43.999873
#P3 2.000254 6.7995936 11.000127 35.819787 0.5 0.5 0.5 0.5
#P4 -11.1895 18.93736 
#N 7
#L Q  Epoch  Monitor  Ion 3  Temperature  Seconds  Detector
-0.005 1964 20002 115204 70.002 1.153 104
-0.004875 1965 20003 115167 70.002 1.153 110
-0.00475 1966 20002 114098 70.002 1.142 105
-0.004625 1968 20002 115063 70.004 1.152 110
-0.0045 1969 20002 114600 70.001 1.147 106
-0.004375 1970 20001 114541 70 1.147 148
-0.00425 1972 20002 114445 70.003 1.146 121
-0.004125 1973 20002 114722 70.002 1.149 129
-0.004 1975 20002 113284 70.004 1.134 140
-0.003875 1976 20003 114456 70 1.146 163
-0.00375 1977 20002 114141 70.001 1.143 153
-0.003625 1979 20001 113956 70.003 1.141 208
-0.0035 1980 20001 113864 70.002 1.14 192
-0.003375 1981 20001 114131 70.004 1.143 216
-0.00325 1983 20003 114482 70.002 1.146 209
-0.003125 1984 20001 115093 70.002 1.153 221
-0.003 1986 20006 114637 70.001 1.148 261
-0.002875 1987 20002 115190 70.002 1.154 284
-0.00275 1988 20001 114960 70.002 1.151 298
-0.002625 1990 20001 114707 70.003 1.15 391
-0.0025 1991 20002 114162 70.004 1.143 374
-0.002375 1992 20002 115090 70 1.153 450
-0.00225 1994 20001 114237 70.001 1.144 444
-0.002125 1995 20004 114710 70 1.149 553
-0.002 1997 20003 113685 70.001 1.139 667
-0.001875 1998 20002 113383 70.001 1.136 724
-0.00175 1999 20002 113926 70 1.141 865
-0.001625 2001 20001 114741 70.002 1.149 1078
-0.0015 2002 20002 115039 70.001 1.152 1403
-0.001375 2003 20003 115125 70.002 1.153 2074
-0.00125 2005 20003 115524 70.001 1.157 3168
-0.001125 2006 20002 115343 70.001 1.155 5188
-0.001 2008 20002 114980 70.001 1.152 11937
-0.000875 2009 20002 114610 70.002 1.148 26772
-0.00075 2010 20001 115127 70 1.153 48693
-0.000625 2012 20005 115105 70.002 1.153 69224
-0.0005 2013 20002 114184 70.002 1.144 79708
-0.000375 2015 20001 114087 70.002 1.143 84741
-0.00025 2016 20002 114601 70.003 1.148 86794
-0.000125 2017 20001 113090 70.002 1.133 86096
0 2019 20003 115005 70.002 1.152 86461
0.000125 2020 20004 115165 70 1.154 83573
0.00025 2021 20001 116325 70.002 1.165 78756
0.000375 2023 20001 112592 70.002 1.128 69645
0.0005 2024 20003 115482 70.001 1.157 62718
0.000625 2026 20003 115275 70 1.155 53820
0.00075 2027 20002 114786 70.001 1.15 46843
0.000875 2028 20002 114278 70.001 1.145 40656
0.001 2030 20001 114485 70 1.147 35681
0.001125 2031 20001 114489 70.001 1.147 30778
0.00125 2033 20005 114617 70.001 1.148 26723
0.001375 2034 20003 115933 70.002 1.162 23704
0.0015 2035 20002 114349 70.002 1.146 19553
0.001625 2037 20001 113571 70 1.138 16267
0.00175 2038 20003 117093 70.001 1.173 14135
0.001875 2039 20003 115129 70 1.154 11429
0.002 2041 20002 113774 70.001 1.14 9783
0.002125 2042 20004 114745 70.003 1.15 8334
0.00225 2044 20005 115976 70.003 1.162 7462
0.002375 2045 20001 115740 70 1.16 6339
0.0025 2046 20002 115271 70.001 1.155 5345
0.002625 2048 20001 113965 69.999 1.142 4351
0.00275 2049 20001 113984 70.001 1.143 3217
0.002875 2050 20001 114880 70.004 1.151 2420
0.003 2052 20003 113143 70 1.134 1498
0.003125 2053 20002 114232 70.003 1.145 927
0.00325 2055 20001 114534 70.002 1.148 497
0.003375 2056 20005 114701 70.002 1.15 363
0.0035 2057 20002 112266 70.002 1.125 234
0.003625 2059 20003 114480 70.002 1.147 173
0.00375 2060 20001 113585 70 1.139 168
0.003875 2062 20002 113746 70.001 1.14 130
0.004 2063 20001 114040 70.002 1.143 107
0.004125 2064 20004 115288 70.002 1.156 101
0.00425 2066 20001 114147 70.003 1.144 87
0.004375 2067 20004 114439 70.002 1.147 84
0.0045 2068 20001 114362 70.001 1.146 69
0.004625 2070 20001 114187 70.004 1.145 78
0.00475 2071 20002 114443 70.002 1.147 61
0.004875 2073 20001 112948 70 1.132 52
0.005 2074 20002 115023 70.004 1.153 48

#S 6  qscan  0.05 0.35 60 -40000
#D Wed Sep 22 16:16:59 2004
#M 40000  (Monitor)
#G0 0 0 0 0 0 1 0 0 0 0 0 0
#G1 6.28318 6.28318 6.28318 90 90 90 1 1 1 90 90 90 2 0 0 2 1 0 24 12 0 0 0 0 24 3.23 100 0 0 0 1.23984 1.45863
#G2 0
#Q 0.00499733 0 0
#P0 0.0565 0.02825 0 0 0 -23 0.99189474 0.12095238
#P1 7.997206 -29.999365 23.799848 0 60.999492 10.94175 252.94576 10.94175
#P2 -67.000254 -18.001016 37.5 3.479807 2.6301753 2.8956058 -0.81978664 -43.999873
#P3 2.000254 6.7995936 11.000127 35.819787 0.5 0.5 0.5 0.5
#P4 -11.1895 18.93736 
#N 7
#L Q  Epoch  Monitor  Ion 3  Temperature  Seconds  Detector
0.05 2081 40004 226085 70 2.267 17953
0.055 2084 40003 225941 70.001 2.266 12999
0.06 2087 40003 227743 70.004 2.284 9822
0.065 2090 40002 229084 70.002 2.298 7224
0.07 2093 40003 229052 70.001 2.297 5514
0.075 2096 40003 226591 70.003 2.273 4161
0.08 2099 40001 226963 70.001 2.276 3414
0.085 2102 40005 227573 70.002 2.283 2704
0.09 2105 40003 228523 70.003 2.292 2237
0.095 2107 40004 226306 70.004 2.272 1806
0.1 2110 40004 226168 70.005 2.269 1527
0.105 2113 40003 226187 70.002 2.269 1323
0.11 2116 40004 229028 70 2.298 1077
0.115 2119 40002 228880 70.002 2.296 990
0.12 2122 40003 227435 70.003 2.282 856
0.125 2125 40005 227581 70.003 2.283 772
0.13 2128 40002 226168 70.003 2.269 684
0.135 2131 40002 225220 70.003 2.26 632
0.14 2134 40001 226182 70.006 2.27 591
0.145 2136 40004 227074 70.004 2.278 539
0.15 2139 40002 225774 70.003 2.265 501
0.155 2142 40005 228674 70.003 2.295 480
0.16 2145 40004 227605 70.005 2.284 447
0.165 2148 40002 227615 70.003 2.284 399
0.17 2151 40003 229500 70.005 2.303 455
0.175 2154 40002 227443 70.003 2.283 350
0.18 2157 40002 226320 70.005 2.271 389
0.185 2160 40003 227054 70.004 2.279 344
0.19 2163 40002 226105 70.004 2.269 312
0.195 2166 40005 226974 70.006 2.278 337
0.2 2169 40001 227913 70.005 2.287 381
0.205 2171 40001 226128 70.004 2.27 321
0.21 2174 40002 226710 70.003 2.276 369
0.215 2177 40004 227791 70.004 2.286 371
0.22 2180 40001 228194 70.005 2.291 334
0.225 2183 40004 227463 70.002 2.283 380
0.23 2186 40002 228439 70.005 2.293 330
0.235 2189 40003 225372 70.004 2.263 341
0.24 2192 40002 225253 70.002 2.262 345
0.245 2195 40001 226306 70.002 2.272 365
0.25 2198 40007 225704 70.007 2.266 339
0.255 2200 40007 226830 70.003 2.277 332
0.26 2203 40001 225138 70.005 2.261 355
0.265 2206 40001 226853 70.005 2.278 352
0.27 2209 40003 227495 70.005 2.284 373
0.275 2212 40003 226050 70.004 2.27 346
0.28 2215 40002 227226 70.005 2.282 321
0.285 2218 40001 226069 70.005 2.27 344
0.29 2221 40004 226639 70.005 2.276 341
0.295 2224 39997 227490 70.005 2.284 372
0.3 2227 40003 226754 70.004 2.277 345
0.305 2230 40003 225932 70.005 2.269 346
0.31 2232 40003 226634 70.005 2.276 322
0.315 2235 40002 226761 70.006 2.277 308
0.32 2238 40008 226897 70.006 2.279 330
0.325 2241 40003 226911 70.005 2.279 292
0.33 2244 40005 225481 70.005 2.265 308
0.335 2247 40002 224642 70.003 2.256 330
0.34 2250 40001 225074 70.005 2.261 297
0.345 2253 40001 226561 70.005 2.276 308
0.35 2256 40003 228244 70.005 2.293 306
#C Wed Sep 22 16:31:35 2004.  do /u/clegg/macros/lakeshore331.mac.
#C Wed Sep 22 16:34:37 2004.  do /u/clegg/macros/lakeshore331.mac.
#C Wed Sep 22 16:35:33 2004.  do /u/clegg/macros/lakeshore331.mac.
#C Wed Sep 22 16:36:03 2004.  do /u/clegg/macros/lakeshore331.mac.
#C Wed Sep 22 16:38:12 2004.  do /u/clegg/macros/loop.mac.
#C Wed Sep 22 16:42:07 2004.  do /u/clegg/macros/batch.mac.

#S 7  ascan  tabv -1.00811 2.99189  20 1
#D Wed Sep 22 16:42:07 2004
#T 1  (Seconds)
#G0 0 0 0 0 0 1 0 0 0 0 0 0
#G1 6.28318 6.28318 6.28318 90 90 90 1 1 1 90 90 90 2 0 0 2 1 0 24 12 0 0 0 0 24 3.23 100 0 0 0 1.23984 1.45863
#G2 0
#Q 0 0 0
#P0 0 0 0 0 5.5 -23 0.99189474 0.12095238
#P1 7.997206 -29.999365 23.799848 0 60.999492 10.94175 252.94576 10.94175
#P2 -67.000254 -18.001016 37.5 3.479807 2.6301753 2.8956058 -0.81978664 -43.999873
#P3 2.000254 6.7995936 11.000127 35.819787 0.5 0.5 0.5 0.5
#P4 -11.1895 18.93736 
#N 10
#L Tab Vert  H  K  L  Epoch  Seconds  Ion 3  Temperature  Detector  Monitor
-1.0081053 0 0 0 3610 1 98816 60.008 0 525
-0.80810526 0 0 0 3613 1 98801 60.004 0 625
-0.60810526 0 0 0 3617 1 98790 60.002 0 659
-0.40810526 0 0 0 3620 1 98769 60.003 0 800
-0.20810526 0 0 0 3623 1 98742 60 0 987
-0.0081052632 0 0 0 3626 1 98705 60.003 0 1529
0.19189474 0 0 0 3630 1 98661 60.001 0 2800
0.39189474 0 0 0 3633 1 98614 60.003 0 6867
0.59189474 0 0 0 3636 1 98554 60.001 0 12574
0.79189474 0 0 0 3640 1 98505 60.002 0 16371
0.99189474 0 0 0 3643 1 98439 60 0 17448
1.1918947 0 0 0 3646 1 98386 60.001 0 16599
1.3918947 0 0 0 3649 1 98318 60.003 0 12960
1.5918947 0 0 0 3653 1 98254 60 0 7080
1.7918947 0 0 0 3656 1 98172 60.002 0 3415
1.9918947 0 0 0 3659 1 98100 60.002 0 2054
2.1918947 0 0 0 3662 1 98015 60.001 0 1376
2.3918947 0 0 0 3666 1 97926 60.003 0 1013
2.5918947 0 0 0 3669 1 97823 60 0 753
2.7918947 0 0 0 3672 1 97741 60.003 0 537
2.9918947 0 0 0 3676 1 97813 60 0 458

#S 8  qscan  -0.005 0.005 80 -20000
#D Wed Sep 22 16:44:03 2004
#M 20000  (Monitor)
#G0 0 0 0 0 0 1 0 0 0 0 0 0
#G1 6.28318 6.28318 6.28318 90 90 90 1 1 1 90 90 90 2 0 0 2 1 0 24 12 0 0 0 0 24 3.23 100 0 0 0 1.23984 1.45863
#G2 0
#Q 0 0 0
#P0 0 0 0 0 5 -23 0.99642105 0.12095238
#P1 7.997206 -29.999365 23.799848 0 60.999492 10.94175 252.94576 10.94175
#P2 -67.000254 -18.001016 37.5 3.479807 2.6301753 2.8956058 -0.81978664 -43.999873
#P3 2.000254 6.7995936 11.000127 35.819787 0.5 0.5 0.5 0.5
#P4 -11.1895 18.93736 
#N 7
#L Q  Epoch  Monitor  Ion 3  Temperature  Seconds  Detector
-0.005 3704 20001 113969 60.003 1.158 86
-0.004875 3705 20002 113097 60.003 1.149 123
-0.00475 3707 20001 114215 60.001 1.16 117
-0.004625 3708 20003 115449 60.004 1.173 114
